#   1 NUMBER          Running object number
#   2 X_IMAGE         Object position along x                         [pixel]
#   3 Y_IMAGE         Object position along y                         [pixel]
#   4 FLUX_ISO        Isophotal flux                                  [count]
#   5 FLUXERR_ISO     RMS error for isophotal flux                    [count]
#   6 FLUX_AUTO       Flux within a Kron-like elliptical aperture     [count]
#   7 FLUXERR_AUTO    RMS error for AUTO flux                         [count]
#   8 FLUX_MAX        Peak flux above background                      [count]
#   9 ISOAREA_IMAGE   Isophotal area above Analysis threshold         [pixel**2]
#  10 CXX_IMAGE       Cxx object ellipse parameter                    [pixel**(-2)]
#  11 CYY_IMAGE       Cyy object ellipse parameter                    [pixel**(-2)]
#  12 CXY_IMAGE       Cxy object ellipse parameter                    [pixel**(-2)]
#  13 A_IMAGE         Profile RMS along major axis                    [pixel]
#  14 B_IMAGE         Profile RMS along minor axis                    [pixel]
#  15 THETA_IMAGE     Position angle (CCW/x)                          [deg]
#  16 FLAGS           Extraction flags
#  17 ELONGATION      A_IMAGE/B_IMAGE
#  18 ELLIPTICITY     1 - B_IMAGE/A_IMAGE
         1    320.885     36.979     140134.2     930.6883     149487.3     1261.621     540.6979       676 1.9956326e-02 3.5964370e-02 -9.4036749e-03     7.317     5.182  15.2   0    1.412    0.292
         2   1364.694    939.669     963.6136      83.0578     966.3761     121.7155     253.2827         6 2.7306585e+00 2.7753325e+00 -1.4441283e+00     0.702     0.536  44.1   0    1.308    0.236
         3     53.097    886.523     712255.2     1563.736     723294.3     1771.396     2012.672      1633 1.0807353e-02 2.3728816e-02 -5.4338942e-03     9.873     6.418  11.4  24    1.538    0.350
         4    801.691    844.489     2460.375     205.0047      10316.2     745.2151     119.9857        13 5.8751470e-01 3.5278806e-01 -1.5688299e-01     1.743     1.279  73.1   0    1.363    0.266
         5   1506.528    845.667     1296.848     105.7757      1619.79     223.8053      322.848         8 7.5056881e-01 3.0191069e+00 -6.2622868e-02     1.155     0.575   0.8   0    2.006    0.502
         6    372.100    767.388     22750.08     551.9619     32357.05     995.4181     176.7599       216 3.4167003e-02 8.6359836e-02 -2.6950497e-02     5.689     3.340  13.7   0    1.703    0.413
         7    804.448    673.472     2299.059     134.6317     2431.271      202.506     662.6964        10 1.4803408e+00 8.1307828e-01 8.7613612e-01     1.295     0.768 -63.6   0    1.687    0.407
         8    767.870    581.182     933.5676     94.05786      1121.25     141.1218     577.6917         5 1.9828336e+00 2.0975173e+00 -5.6590849e-01     0.756     0.655  39.3   0    1.153    0.133
         9    761.827    579.843     1512.067     115.6808     1606.732     171.1821     329.9528         8 1.0041169e+00 1.9884946e+00 -2.0612442e-01     1.003     0.707   5.9   0    1.419    0.295
        10   1001.033    558.741     888.3423     117.2496     2854.933     337.1073     95.12109         6 1.8488706e+00 2.1166260e+00 -6.9138102e-02     0.736     0.687   7.2   0    1.072    0.067
        11    901.540    526.987     1114.664     95.01567     1091.245     137.4635     435.9575         5 1.7527047e+00 2.2880952e+00 1.9335371e-02     0.755     0.661  -1.0   0    1.143    0.125
        12    101.344    523.659     2041.462     188.8731     8319.996      555.901     107.7285         9 1.1729535e+00 1.2255543e+00 -1.5907534e+00     1.574     0.708  44.1   2    2.224    0.550
        13    545.851    518.335     801.3145     98.50783     960.4865     150.7385     330.2482         6 2.2899704e+00 1.3686728e+00 -6.6958201e-01     0.891     0.646  72.0   0    1.380    0.275
        14   1134.219    462.022     269109.1     1153.465       284886     1489.531     856.6959       985 1.6161470e-02 2.8100705e-02 -6.3159154e-03     8.064     5.884  13.9   0    1.371    0.270
        15    524.276    462.238     772.4623     98.36127      1278.06     246.2274     174.8134         6 2.1058125e+00 1.9621530e+00 -2.6007676e+00     1.169     0.547  46.6   0    2.135    0.532
        16    501.706    454.518      4409.84     200.0494     5426.559     429.4942     436.0532        23 2.3156372e-01 1.3422081e+00 8.0996163e-02     2.085     0.863  -2.1   0    2.417    0.586
        17      1.571    424.290     524.4308     86.30516     950.3987     157.1316     124.2566         7 4.2304688e+00 1.0543278e+00 -7.9129094e-01     0.997     0.483  83.0  24    2.063    0.515
        18    347.731    347.963     1517.514     106.8137     1764.489     219.6707      723.408         7 1.4961131e+00 1.9861699e+00 2.1941226e-02     0.818     0.710  -1.3   0    1.152    0.132
        19    824.560    325.313     893.0851     112.9737     2909.547     332.7589     109.6545         4 4.3381548e+00 1.0462863e+00 -1.0830486e+00     1.021     0.475  80.9   0    2.148    0.534
        20   1233.503    183.550     5107.234     141.2257     5190.589     181.3483     1716.508        12 1.3283033e+00 1.3046271e+00 5.3229511e-01     0.976     0.795 -46.3   0    1.228    0.186
        21    495.608    125.507      27124.3     578.5796     33631.05     958.0939     201.7329       269 3.4471907e-02 5.7811763e-02 -2.2293637e-02     5.773     4.007  21.8   0    1.441    0.306
        22    666.535    121.925     1871.762     140.2737     1971.753     215.6018     292.1427        15 1.3197834e+00 5.6439149e-01 -4.1356999e-01     1.398     0.854  75.6   0    1.638    0.390
        23    914.872    119.899     994.8831     104.3385     1098.453     163.7581     190.6167         7 8.4929723e-01 2.5495124e+00 3.3432657e-01     1.096     0.624  -5.6   0    1.755    0.430
        24    928.442     96.756     30758.71     610.7451     43710.71     1194.802     187.1268       291 2.9274536e-02 6.3041128e-02 -1.5570025e-02     6.023     3.930  12.4   0    1.533    0.348
        25    983.597     97.846     339.4717     72.70002     2178.978      286.882      85.9176         5 4.7427545e+00 2.1098225e+00 -2.2214761e+00     0.766     0.441  69.9   0    1.738    0.425
        26    247.490     78.593     17098.45     451.7195     34837.53      1037.51     191.2905       159 4.0128883e-02 6.1785009e-02 -2.0031819e-02     5.255     3.901  21.4   3    1.347    0.258
        27    240.780     77.534     16814.56     434.6598      34272.5     1145.545     219.0828       153 5.7941698e-02 7.2666235e-02 2.6936628e-02     4.474     3.521 -30.7   3    1.271    0.213
